Data File C:\HPCHEM\1\DATA\VLAH\16042608.D Sample Name: noname_pom_spike
Instrument 1 4/26/16 8:48:12 PM Sami Taipale

20ng/uL C19 standard - total sample vol=200uL

=====================================================================
Injection Date  : 4/26/16 7:22:56 PM             Seq. Line :   6
Sample Name     : noname_pom_spike                    Vial : 206
Acq. Operator   : Sami Taipale                         Inj :   1
                                                Inj Volume : 1 µl
Sequence File   : C:\HPCHEM\1\SEQUENCE\MH150604.S
Method          : C:\HPCHEM\1\METHODS\FAMES4.M
Last changed    : 9/1/15 11:13:12 AM by Sami Taipale
formated method for FAMEs, especially for 16 MUFAs, now also for 18 MUFAs

=====================================================================
                         Area Percent Report                         
=====================================================================

Sorted By             :      Signal
Calib. Data Modified  :      Monday, July 13, 2009 7:12:02 PM
Multiplier            :      1.0000
Dilution              :      1.0000


Signal 1: FID1 A, 

Peak RetTime  Type   Width     Area      Area    Name
  #   [min]          [min]   [pA*s]        %
----|-------|------|-------|----------|--------|---------------------
   1   5.838 BB      0.0826    3.10385  0.42750 ?                                                 
   2   7.685 BB      0.0396    4.58584  0.63162 ?                                                 
   3   8.025 BP      0.0469    1.29559  0.17844 C13:0                                             
   4   8.762         0.0000    0.00000  0.00000                                                   
   5   9.311 BB      0.0435    7.07204  0.97405                                                   
   6  10.025         0.0000    0.00000  0.00000                                                   
   7  10.779         0.0000    0.00000  0.00000                                                   
   8  11.442         0.0000    0.00000  0.00000                                                   
   9  11.836         0.0000    0.00000  0.00000                                                   
  10  13.139         0.0000    0.00000  0.00000                                                   
  11  13.762         0.0000    0.00000  0.00000                                                   
  12  14.982         0.0000    0.00000  0.00000                                                   
  13  15.424         0.0000    0.00000  0.00000                                                   
  14  15.540         0.0000    0.00000  0.00000                                                   
  15  16.212         0.0000    0.00000  0.00000                                                   
  16  16.741         0.0000    0.00000  0.00000                                                   
  17  17.280         0.0000    0.00000  0.00000                                                   
  18  17.801         0.0000    0.00000  0.00000                                                   
  19  19.131         0.0000    0.00000  0.00000                                                   
  20  20.145         0.0000    0.00000  0.00000                                                   
  21  21.288         0.0000    0.00000  0.00000                                                   
  22  21.632         0.0000    0.00000  0.00000                                                   
  23  21.946         0.0000    0.00000  0.00000                                                   
  24  22.294         0.0000    0.00000  0.00000                                                   
  25  23.199         0.0000    0.00000  0.00000                                                   
  26  23.474         0.0000    0.00000  0.00000                                                   
  27  24.707         0.0000    0.00000  0.00000                                                   
  28  25.489         0.0000    0.00000  0.00000                                                   
  29  26.284         0.0000    0.00000  0.00000                                                   
  30  27.345         0.0000    0.00000  0.00000                                                   
  31  27.932         0.0000    0.00000  0.00000                                                   
  32  28.195         0.0000    0.00000  0.00000                                                   
  33  29.076 BB      0.0736   15.55552  2.14249                                                   
  34  33.482         0.0000    0.00000  0.00000                                                   
  35  34.109         0.0000    0.00000  0.00000                                                   
  36  36.846         0.0000    0.00000  0.00000                                                   
  37  38.089 BB      0.0882   31.28504  4.30895                                                   
  38  38.870 BB      0.0980   21.19936  2.91983                                                   
  39  39.286 PP      0.0964    4.33900  0.59762 ?                                                 
  40  41.169 BP      0.0952    3.78428  0.52122 ?                                                 
  41  43.389 BV      0.1361  425.55017 58.61186 ?                                                 
  42  48.523 PB      0.1018    8.25430  1.13688 ?                                                 
  43  59.499 BP      0.1132    8.17198  1.12554 ?                                                 
  44  70.151 BB      0.1701    5.44674  0.75019 ?                                                 
  45  70.879 PB      0.1478   10.15979  1.39933 ?                                                 
  46  72.666 BB      0.1869    6.21794  0.85641 ?                                                 
  47  80.975 BB      0.1142    6.39330  0.88056 ?                                                 
  48  82.057 BB      0.1248   18.34456  2.52663 ?                                                 
  49  83.488 BB      0.2548   16.79700  2.31348 ?                                                 
  50  84.067 BV      0.2578   27.62249  3.80450 ?                                                 
  51  84.545 VB      0.1174   76.26226 10.50375 ?                                                 
  52  84.929 BBA     0.0794   24.60689  3.38916 ?                                                 
Totals :                     726.04793

2 Warnings or Errors :

Warning : Calibration warnings (see calibration table listing)
Warning : Calibrated compound(s) not found

=====================================================================
                          *** End of Report ***
